 Al Density=2.6989 Thickness=0.2 microns
 Photon Energy (eV), Transmission
    50.000      0.68203    
    50.400      0.68616    
    50.800      0.69022    
    51.200      0.69420    
    51.600      0.69812    
    52.000      0.70197    
    52.400      0.70575    
    52.800      0.70946    
    53.200      0.71294    
    53.600      0.71606    
    54.000      0.71908    
    54.400      0.72181    
    54.800      0.72451    
    55.200      0.72717    
    55.600      0.72978    
    56.000      0.73236    
    56.400      0.73490    
    56.800      0.73741    
    57.200      0.73987    
    57.600      0.74230    
    58.000      0.74470    
    58.400      0.74706    
    58.800      0.74938    
    59.200      0.75168    
    59.600      0.75350    
    60.000      0.75503    
    60.400      0.75648    
    60.800      0.75770    
    61.200      0.75891    
    61.600      0.76010    
    62.000      0.76128    
    62.400      0.76245    
    62.800      0.76361    
    63.200      0.76475    
    63.600      0.76394    
    64.000      0.76254    
    64.400      0.76111    
    64.800      0.75952    
    65.200      0.75792    
    65.600      0.75633    
    66.000      0.75474    
    66.400      0.75315    
    66.800      0.75156    
    67.200      0.74997    
    67.600      0.74846    
    68.000      0.74716    
    68.400      0.74585    
    68.800      0.74457    
    69.200      0.74331    
    69.600      0.74204    
    70.000      0.74078    
    70.400      0.73953    
    70.800      0.73827    
    71.200      0.73702    
    71.600      0.73576    
    72.000      0.73452    
    72.400      0.73327    
    72.800      0.29267E-01
    73.200      0.27898E-01
    73.600      0.26582E-01
    74.000      0.25319E-01
    74.400      0.24106E-01
    74.800      0.22943E-01
    75.200      0.21827E-01
    75.600      0.20758E-01
    76.000      0.19733E-01
    76.400      0.18752E-01
    76.800      0.17812E-01
    77.200      0.16913E-01
    77.600      0.16053E-01
    78.000      0.15230E-01
    78.400      0.14444E-01
    78.800      0.13693E-01
    79.200      0.12976E-01
    79.600      0.12292E-01
    80.000      0.11639E-01
    80.400      0.11017E-01
    80.800      0.10458E-01
    81.200      0.99373E-02
    81.600      0.94396E-02
    82.000      0.89651E-02
    82.400      0.85131E-02
    82.800      0.80812E-02
    83.200      0.76689E-02
    83.600      0.72754E-02
    84.000      0.68999E-02
    84.400      0.65417E-02
    84.800      0.62001E-02
    85.200      0.58745E-02
    85.600      0.55642E-02
    86.000      0.53057E-02
    86.400      0.51170E-02
    86.800      0.49347E-02
    87.200      0.47584E-02
    87.600      0.46784E-02
    88.000      0.46092E-02
    88.400      0.45411E-02
    88.800      0.44742E-02
    89.200      0.44083E-02
    89.600      0.43435E-02
    90.000      0.42798E-02
    90.400      0.42172E-02
    90.800      0.41555E-02
    91.200      0.40949E-02
    91.600      0.40352E-02
    92.000      0.39765E-02
    92.400      0.39188E-02
    92.800      0.38620E-02
    93.200      0.38061E-02
    93.600      0.37511E-02
    94.000      0.36971E-02
    94.400      0.36438E-02
    94.800      0.35915E-02
    95.200      0.35399E-02
    95.600      0.34892E-02
    96.000      0.34393E-02
    96.400      0.33902E-02
    96.800      0.33419E-02
    97.200      0.32943E-02
    97.600      0.32475E-02
    98.000      0.32014E-02
    98.400      0.31561E-02
    98.800      0.31114E-02
    99.200      0.30675E-02
    99.600      0.30242E-02
    100.00      0.29816E-02
    100.40      0.29397E-02
    100.80      0.28985E-02
    101.20      0.28578E-02
    101.60      0.28178E-02
    102.00      0.27784E-02
    102.40      0.27397E-02
    102.80      0.27049E-02
    103.20      0.26708E-02
    103.60      0.26372E-02
    104.00      0.26041E-02
    104.40      0.25782E-02
    104.80      0.25541E-02
    105.20      0.25304E-02
    105.60      0.25069E-02
    106.00      0.24837E-02
    106.40      0.24608E-02
    106.80      0.24381E-02
    107.20      0.24157E-02
    107.60      0.23936E-02
    108.00      0.23717E-02
    108.40      0.23500E-02
    108.80      0.23286E-02
    109.20      0.23074E-02
    109.60      0.22864E-02
    110.00      0.22657E-02
    110.40      0.22452E-02
    110.80      0.22250E-02
    111.20      0.22049E-02
    111.60      0.21851E-02
    112.00      0.21656E-02
    112.40      0.21462E-02
    112.80      0.21271E-02
    113.20      0.21081E-02
    113.60      0.20894E-02
    114.00      0.20709E-02
    114.40      0.20526E-02
    114.80      0.20344E-02
    115.20      0.20165E-02
    115.60      0.19988E-02
    116.00      0.19813E-02
    116.40      0.19640E-02
    116.80      0.19468E-02
    117.20      0.19298E-02
    117.60      0.19130E-02
    118.00      0.18963E-02
    118.40      0.18799E-02
    118.80      0.18636E-02
    119.20      0.18475E-02
    119.60      0.18316E-02
    120.00      0.18158E-02
    120.40      0.18003E-02
    120.80      0.17848E-02
    121.20      0.17696E-02
    121.60      0.17545E-02
    122.00      0.17395E-02
    122.40      0.17247E-02
    122.80      0.17101E-02
    123.20      0.16956E-02
    123.60      0.16813E-02
    124.00      0.16671E-02
    124.40      0.16737E-02
    124.80      0.16953E-02
    125.20      0.17170E-02
    125.60      0.17389E-02
    126.00      0.17609E-02
    126.40      0.17889E-02
    126.80      0.18217E-02
    127.20      0.18549E-02
    127.60      0.18885E-02
    128.00      0.19225E-02
    128.40      0.19570E-02
    128.80      0.19918E-02
    129.20      0.20271E-02
    129.60      0.20627E-02
    130.00      0.20988E-02
    130.40      0.21353E-02
    130.80      0.21721E-02
    131.20      0.22095E-02
    131.60      0.22472E-02
    132.00      0.22853E-02
    132.40      0.23239E-02
    132.80      0.23629E-02
    133.20      0.24023E-02
    133.60      0.24421E-02
    134.00      0.24824E-02
    134.40      0.25231E-02
    134.80      0.25642E-02
    135.20      0.26058E-02
    135.60      0.26478E-02
    136.00      0.26902E-02
    136.40      0.27331E-02
    136.80      0.27764E-02
    137.20      0.28202E-02
    137.60      0.28644E-02
    138.00      0.29090E-02
    138.40      0.29541E-02
    138.80      0.29996E-02
    139.20      0.30455E-02
    139.60      0.30919E-02
    140.00      0.31388E-02
    140.40      0.31861E-02
    140.80      0.32339E-02
    141.20      0.32821E-02
    141.60      0.33307E-02
    142.00      0.33798E-02
    142.40      0.34294E-02
    142.80      0.34794E-02
    143.20      0.35299E-02
    143.60      0.35809E-02
    144.00      0.36322E-02
    144.40      0.36841E-02
    144.80      0.37364E-02
    145.20      0.37892E-02
    145.60      0.38425E-02
    146.00      0.38962E-02
    146.40      0.39503E-02
    146.80      0.40050E-02
    147.20      0.40600E-02
    147.60      0.41156E-02
    148.00      0.41716E-02
    148.40      0.42281E-02
    148.80      0.42851E-02
    149.20      0.43426E-02
    149.60      0.44005E-02
    150.00      0.44589E-02
    150.40      0.45177E-02
    150.80      0.45882E-02
    151.20      0.46648E-02
    151.60      0.47422E-02
    152.00      0.48205E-02
    152.40      0.48996E-02
    152.80      0.49795E-02
    153.20      0.50606E-02
    153.60      0.51427E-02
    154.00      0.52257E-02
    154.40      0.53096E-02
    154.80      0.53943E-02
    155.20      0.54799E-02
    155.60      0.55664E-02
    156.00      0.56537E-02
    156.40      0.57419E-02
    156.80      0.58310E-02
    157.20      0.59210E-02
    157.60      0.60119E-02
    158.00      0.61036E-02
    158.40      0.61962E-02
    158.80      0.62898E-02
    159.20      0.63842E-02
    159.60      0.64795E-02
    160.00      0.65757E-02
    160.40      0.66728E-02
    160.80      0.67708E-02
    161.20      0.68696E-02
    161.60      0.69694E-02
    162.00      0.70701E-02
    162.40      0.71717E-02
    162.80      0.72742E-02
    163.20      0.73776E-02
    163.60      0.74819E-02
    164.00      0.75871E-02
    164.40      0.76933E-02
    164.80      0.78003E-02
    165.20      0.79083E-02
    165.60      0.80172E-02
    166.00      0.81270E-02
    166.40      0.82377E-02
    166.80      0.83494E-02
    167.20      0.84620E-02
    167.60      0.85755E-02
    168.00      0.86899E-02
    168.40      0.88052E-02
    168.80      0.89215E-02
    169.20      0.90387E-02
    169.60      0.91568E-02
    170.00      0.92758E-02
    170.40      0.93958E-02
    170.80      0.95167E-02
    171.20      0.96386E-02
    171.60      0.97613E-02
    172.00      0.98850E-02
    172.40      0.10010E-01
    172.80      0.10135E-01
    173.20      0.10262E-01
    173.60      0.10389E-01
    174.00      0.10518E-01
    174.40      0.10647E-01
    174.80      0.10777E-01
    175.20      0.10908E-01
    175.60      0.11040E-01
    176.00      0.11174E-01
    176.40      0.11308E-01
    176.80      0.11449E-01
    177.20      0.11624E-01
    177.60      0.11800E-01
    178.00      0.11978E-01
    178.40      0.12157E-01
    178.80      0.12338E-01
    179.20      0.12521E-01
    179.60      0.12709E-01
    180.00      0.12988E-01
    180.40      0.13271E-01
    180.80      0.13558E-01
    181.20      0.13849E-01
    181.60      0.14144E-01
    182.00      0.14443E-01
    182.40      0.14747E-01
    182.80      0.15054E-01
    183.20      0.15366E-01
    183.60      0.15682E-01
    184.00      0.16002E-01
    184.40      0.16327E-01
    184.80      0.16656E-01
    185.20      0.16989E-01
    185.60      0.17326E-01
    186.00      0.17667E-01
    186.40      0.18013E-01
    186.80      0.18363E-01
    187.20      0.18717E-01
    187.60      0.19076E-01
    188.00      0.19439E-01
    188.40      0.19806E-01
    188.80      0.20178E-01
    189.20      0.20554E-01
    189.60      0.20934E-01
    190.00      0.21319E-01
    190.40      0.21708E-01
    190.80      0.22102E-01
    191.20      0.22500E-01
    191.60      0.22902E-01
    192.00      0.23309E-01
    192.40      0.23720E-01
    192.80      0.24136E-01
    193.20      0.24556E-01
    193.60      0.24980E-01
    194.00      0.25409E-01
    194.40      0.25842E-01
    194.80      0.26280E-01
    195.20      0.26722E-01
    195.60      0.27169E-01
    196.00      0.27620E-01
    196.40      0.28076E-01
    196.80      0.28536E-01
    197.20      0.29000E-01
    197.60      0.29469E-01
    198.00      0.29942E-01
    198.40      0.30420E-01
    198.80      0.30902E-01
    199.20      0.31389E-01
    199.60      0.31880E-01
    200.00      0.32376E-01
    200.40      0.32876E-01
    200.80      0.33380E-01
    201.20      0.33894E-01
    201.60      0.34414E-01
    202.00      0.34939E-01
    202.40      0.35468E-01
    202.80      0.36002E-01
    203.20      0.36540E-01
    203.60      0.37083E-01
    204.00      0.37631E-01
    204.40      0.38183E-01
    204.80      0.38739E-01
    205.20      0.39300E-01
    205.60      0.39866E-01
    206.00      0.40435E-01
    206.40      0.41010E-01
    206.80      0.41589E-01
    207.20      0.42172E-01
    207.60      0.42759E-01
    208.00      0.43352E-01
    208.40      0.43948E-01
    208.80      0.44549E-01
    209.20      0.45155E-01
    209.60      0.45765E-01
    210.00      0.46379E-01
    210.40      0.46997E-01
    210.80      0.47620E-01
    211.20      0.48247E-01
    211.60      0.48878E-01
    212.00      0.49514E-01
    212.40      0.50154E-01
    212.80      0.50798E-01
    213.20      0.51446E-01
    213.60      0.52099E-01
    214.00      0.52756E-01
    214.40      0.53417E-01
    214.80      0.54082E-01
    215.20      0.54751E-01
    215.60      0.55425E-01
    216.00      0.56103E-01
    216.40      0.56785E-01
    216.80      0.57471E-01
    217.20      0.58161E-01
    217.60      0.58855E-01
    218.00      0.59553E-01
    218.40      0.60255E-01
    218.80      0.60962E-01
    219.20      0.61672E-01
    219.60      0.62386E-01
    220.00      0.63104E-01
    220.40      0.63826E-01
    220.80      0.64552E-01
    221.20      0.65282E-01
    221.60      0.65989E-01
    222.00      0.66696E-01
    222.40      0.67406E-01
    222.80      0.68120E-01
    223.20      0.68837E-01
    223.60      0.69558E-01
    224.00      0.70282E-01
    224.40      0.71010E-01
    224.80      0.71740E-01
    225.20      0.72398E-01
    225.60      0.73054E-01
    226.00      0.73713E-01
    226.40      0.74375E-01
    226.80      0.75039E-01
    227.20      0.75705E-01
    227.60      0.76374E-01
    228.00      0.77045E-01
    228.40      0.77719E-01
    228.80      0.78395E-01
    229.20      0.79073E-01
    229.60      0.79754E-01
    230.00      0.80437E-01
    230.40      0.81122E-01
    230.80      0.81810E-01
    231.20      0.82500E-01
    231.60      0.83192E-01
    232.00      0.83887E-01
    232.40      0.84584E-01
    232.80      0.85283E-01
    233.20      0.85984E-01
    233.60      0.86687E-01
    234.00      0.87393E-01
    234.40      0.88101E-01
    234.80      0.88810E-01
    235.20      0.89522E-01
    235.60      0.90237E-01
    236.00      0.90953E-01
    236.40      0.91671E-01
    236.80      0.92391E-01
    237.20      0.93114E-01
    237.60      0.93838E-01
    238.00      0.94565E-01
    238.40      0.95293E-01
    238.80      0.96024E-01
    239.20      0.96756E-01
    239.60      0.97491E-01
    240.00      0.98227E-01
    240.40      0.98965E-01
    240.80      0.99705E-01
    241.20      0.10045    
    241.60      0.10119    
    242.00      0.10194    
    242.40      0.10268    
    242.80      0.10343    
    243.20      0.10418    
    243.60      0.10494    
    244.00      0.10569    
    244.40      0.10645    
    244.80      0.10721    
    245.20      0.10797    
    245.60      0.10873    
    246.00      0.10949    
    246.40      0.11026    
    246.80      0.11102    
    247.20      0.11179    
    247.60      0.11256    
    248.00      0.11333    
    248.40      0.11411    
    248.80      0.11488    
    249.20      0.11566    
    249.60      0.11644    
    250.00      0.11722   
250.40      0.11800    
    250.80      0.11878    
    251.20      0.11957    
    251.60      0.12035    
    252.00      0.12114    
    252.40      0.12193    
    252.80      0.12272    
    253.20      0.12351    
    253.60      0.12430    
    254.00      0.12509    
    254.40      0.12589    
    254.80      0.12669    
    255.20      0.12748    
    255.60      0.12828    
    256.00      0.12908    
    256.40      0.12989    
    256.80      0.13069    
    257.20      0.13149    
    257.60      0.13230    
    258.00      0.13311    
    258.40      0.13392    
    258.80      0.13472    
    259.20      0.13554    
    259.60      0.13635    
    260.00      0.13716    
    260.40      0.13797    
    260.80      0.13879    
    261.20      0.13961    
    261.60      0.14042    
    262.00      0.14124    
    262.40      0.14206    
    262.80      0.14288    
    263.20      0.14370    
    263.60      0.14453    
    264.00      0.14536    
    264.40      0.14623    
    264.80      0.14710    
    265.20      0.14798    
    265.60      0.14885    
    266.00      0.14973    
    266.40      0.15060    
    266.80      0.15148    
    267.20      0.15236    
    267.60      0.15324    
    268.00      0.15412    
    268.40      0.15510    
    268.80      0.15619    
    269.20      0.15728    
    269.60      0.15837    
    270.00      0.15946    
    270.40      0.16055    
    270.80      0.16165    
    271.20      0.16275    
    271.60      0.16384    
    272.00      0.16494    
    272.40      0.16605    
    272.80      0.16715    
    273.20      0.16826    
    273.60      0.16936    
    274.00      0.17047    
    274.40      0.17158    
    274.80      0.17270    
    275.20      0.17381    
    275.60      0.17492    
    276.00      0.17604    
    276.40      0.17716    
    276.80      0.17828    
    277.20      0.17940    
    277.60      0.18052    
    278.00      0.18164    
    278.40      0.18277    
    278.80      0.18389    
    279.20      0.18502    
    279.60      0.18614    
    280.00      0.18727    
    280.40      0.18840    
    280.80      0.18953    
    281.20      0.19067    
    281.60      0.19180    
    282.00      0.19293    
    282.40      0.19407    
    282.80      0.19521    
    283.20      0.19634    
    283.60      0.19748    
    284.00      0.19862    
    284.40      0.19976    
    284.80      0.20090    
    285.20      0.20204    
    285.60      0.20318    
    286.00      0.20433    
    286.40      0.20547    
    286.80      0.20662    
    287.20      0.20776    
    287.60      0.20891    
    288.00      0.21006    
    288.40      0.21120    
    288.80      0.21235    
    289.20      0.21350    
    289.60      0.21465    
    290.00      0.21580    
    290.40      0.21695    
    290.80      0.21810    
    291.20      0.21925    
    291.60      0.22040    
    292.00      0.22156    
    292.40      0.22271    
    292.80      0.22386    
    293.20      0.22502    
    293.60      0.22617    
    294.00      0.22733    
    294.40      0.22848    
    294.80      0.22964    
    295.20      0.23079    
    295.60      0.23195    
    296.00      0.23310    
    296.40      0.23426    
    296.80      0.23542    
    297.20      0.23657    
    297.60      0.23773    
    298.00      0.23889    
    298.40      0.24004    
    298.80      0.24120    
    299.20      0.24236    
    299.60      0.24351    
    300.00      0.24467    
    300.40      0.24583    
    300.80      0.24699    
    301.20      0.24814    
    301.60      0.24930    
    302.00      0.25046    
    302.40      0.25162    
    302.80      0.25277    
    303.20      0.25393    
    303.60      0.25509    
    304.00      0.25625    
    304.40      0.25740    
    304.80      0.25856    
    305.20      0.25972    
    305.60      0.26087    
    306.00      0.26203    
    306.40      0.26318    
    306.80      0.26434    
    307.20      0.26550    
    307.60      0.26665    
    308.00      0.26781    
    308.40      0.26896    
    308.80      0.27011    
    309.20      0.27127    
    309.60      0.27242    
    310.00      0.27358    
    310.40      0.27473    
    310.80      0.27588    
    311.20      0.27703    
    311.60      0.27818    
    312.00      0.27934    
    312.40      0.28049    
    312.80      0.28164    
    313.20      0.28279    
    313.60      0.28394    
    314.00      0.28508    
    314.40      0.28623    
    314.80      0.28738    
    315.20      0.28853    
    315.60      0.28967    
    316.00      0.29082    
    316.40      0.29197    
    316.80      0.29311    
    317.20      0.29426    
    317.60      0.29540    
    318.00      0.29654    
    318.40      0.29768    
    318.80      0.29883    
    319.20      0.29997    
    319.60      0.30111    
    320.00      0.30225    
    320.40      0.30339    
    320.80      0.30452    
    321.20      0.30566    
    321.60      0.30680    
    322.00      0.30793    
    322.40      0.30907    
    322.80      0.31020    
    323.20      0.31134    
    323.60      0.31247    
    324.00      0.31360    
    324.40      0.31473    
    324.80      0.31586    
    325.20      0.31699    
    325.60      0.31812    
    326.00      0.31925    
    326.40      0.32037    
    326.80      0.32150    
    327.20      0.32263    
    327.60      0.32375    
    328.00      0.32487    
    328.40      0.32599    
    328.80      0.32712    
    329.20      0.32824    
    329.60      0.32935    
    330.00      0.33047    
    330.40      0.33159    
    330.80      0.33271    
    331.20      0.33382    
    331.60      0.33494    
    332.00      0.33605    
    332.40      0.33716    
    332.80      0.33827    
    333.20      0.33938    
    333.60      0.34049    
    334.00      0.34160    
