Si3N4 Density=3.44 Alpha=0.5 Thickness=50.nm
 Photon Energy (eV), Efficiency
   50.0000  0.117317
   50.1615  0.117005
   50.3236  0.116691
   50.4861  0.116376
   50.6492  0.116048
   50.8129  0.115710
   50.9770  0.115371
   51.1417  0.115030
   51.3069  0.114688
   51.4727  0.114324
   51.6390  0.113945
   51.8058  0.113564
   51.9731  0.113182
   52.1410  0.112799
   52.3095  0.112359
   52.4785  0.111883
   52.6480  0.111406
   52.8181  0.110927
   52.9887  0.110448
   53.1599  0.109966
   53.3316  0.109485
   53.5039  0.109004
   53.6768  0.108525
   53.8502  0.108047
   54.0241  0.107722
   54.1987  0.107474
   54.3737  0.107225
   54.5494  0.106975
   54.7256  0.106724
   54.9024  0.106409
   55.0798  0.106063
   55.2577  0.105717
   55.4362  0.105371
   55.6153  0.105024
   55.7950  0.104673
   55.9752  0.104320
   56.1561  0.103967
   56.3375  0.103613
   56.5195  0.103259
   56.7021  0.102899
   56.8853  0.102535
   57.0690  0.102172
   57.2534  0.101808
   57.4383  0.101444
   57.6239  0.101074
   57.8101  0.100701
   57.9968  0.100329
   58.1842  9.995584E-02
   58.3721  9.958293E-02
   58.5607  9.920243E-02
   58.7499  9.881990E-02
   58.9397  9.843729E-02
   59.1301  9.805464E-02
   59.3211  9.767200E-02
   59.5128  9.728241E-02
   59.7050  9.689132E-02
   59.8979  9.650032E-02
   60.0914  9.610945E-02
   60.2855  9.571871E-02
   60.4803  9.533022E-02
   60.6757  9.494226E-02
   60.8717  9.455448E-02
   61.0683  9.416690E-02
   61.2656  9.377949E-02
   61.4635  9.339195E-02
   61.6621  9.300451E-02
   61.8613  9.261731E-02
   62.0611  9.223033E-02
   62.2616  9.184361E-02
   62.4628  9.145081E-02
   62.6645  9.105757E-02
   62.8670  9.066471E-02
   63.0701  9.027219E-02
   63.2738  8.988006E-02
   63.4782  8.948702E-02
   63.6833  8.909430E-02
   63.8890  8.870202E-02
   64.0954  8.831022E-02
   64.3025  8.791886E-02
   64.5102  8.753511E-02
   64.7186  8.715229E-02
   64.9277  8.676992E-02
   65.1375  8.638803E-02
   65.3479  8.600669E-02
   65.5590  8.562161E-02
   65.7708  8.523693E-02
   65.9833  8.485276E-02
   66.1964  8.446920E-02
   66.4103  8.408616E-02
   66.6248  8.369226E-02
   66.8400  8.329898E-02
   67.0560  8.290639E-02
   67.2726  8.251448E-02
   67.4899  8.212318E-02
   67.7080  8.172827E-02
   67.9267  8.133410E-02
   68.1461  8.094073E-02
   68.3663  8.054814E-02
   68.5871  8.015647E-02
   68.8087  7.976822E-02
   69.0310  7.938078E-02
   69.2540  7.899414E-02
   69.4777  7.860833E-02
   69.7022  7.822389E-02
   69.9274  7.784756E-02
   70.1533  7.747196E-02
   70.3799  7.709710E-02
   70.6073  7.672302E-02
   70.8354  7.634734E-02
   71.0642  7.595018E-02
   71.2938  7.555382E-02
   71.5241  7.515834E-02
   71.7551  7.476375E-02
   71.9870  7.436661E-02
   72.2195  7.394556E-02
   72.4528  7.352561E-02
   72.6869  7.310678E-02
   72.9217  7.268908E-02
   73.1573  7.227053E-02
   73.3936  7.184149E-02
   73.6307  7.141373E-02
   73.8686  7.098725E-02
   74.1072  7.056209E-02
   74.3466  7.013718E-02
   74.5868  6.970851E-02
   74.8278  6.928111E-02
   75.0695  6.885501E-02
   75.3120  6.843025E-02
   75.5553  6.799882E-02
   75.7994  6.753642E-02
   76.0443  6.707557E-02
   76.2899  6.661634E-02
   76.5364  6.615871E-02
   76.7836  6.569276E-02
   77.0317  6.519394E-02
   77.2805  6.469717E-02
   77.5302  6.420247E-02
   77.7807  6.370988E-02
   78.0319  6.321080E-02
   78.2840  6.268813E-02
   78.5369  6.216795E-02
   78.7906  6.165024E-02
   79.0452  6.113504E-02
   79.3005  6.061222E-02
   79.5567  6.006541E-02
   79.8137  5.952179E-02
   80.0716  5.898142E-02
   80.3302  5.844427E-02
   80.5897  5.790854E-02
   80.8501  5.737174E-02
   81.1113  5.683827E-02
   81.3733  5.630809E-02
   81.6362  5.578122E-02
   81.8999  5.525006E-02
   82.1645  5.470656E-02
   82.4299  5.416667E-02
   82.6962  5.363033E-02
   82.9634  5.309762E-02
   83.2314  5.255394E-02
   83.5003  5.198716E-02
   83.7700  5.142450E-02
   84.0406  5.086599E-02
   84.3121  5.031163E-02
   84.5845  4.975006E-02
   84.8578  4.917414E-02
   85.1319  4.860291E-02
   85.4069  4.803633E-02
   85.6828  4.747440E-02
   85.9596  4.690899E-02
   86.2373  4.633621E-02
   86.5159  4.576838E-02
   86.7954  4.520547E-02
   87.0758  4.464748E-02
   87.3571  4.407797E-02
   87.6393  4.349166E-02
   87.9224  4.291083E-02
   88.2065  4.233548E-02
   88.4914  4.176559E-02
   88.7773  4.117997E-02
   89.0641  4.057458E-02
   89.3518  3.997543E-02
   89.6405  3.938250E-02
   89.9301  3.879572E-02
   90.2206  3.818635E-02
   90.5121  3.755238E-02
   90.8045  3.692570E-02
   91.0978  3.630630E-02
   91.3921  3.569413E-02
   91.6873  3.505244E-02
   91.9835  3.438272E-02
   92.2807  3.372178E-02
   92.5788  3.306960E-02
   92.8779  3.242612E-02
   93.1779  3.173972E-02
   93.4790  3.101756E-02
   93.7809  3.030649E-02
   94.0839  2.960646E-02
   94.3878  2.891737E-02
   94.6928  2.815533E-02
   94.9987  2.733994E-02
   95.3056  2.654011E-02
   95.6135  2.575573E-02
   95.9223  2.498671E-02
   96.2322  2.407496E-02
   96.5431  2.307245E-02
   96.8550  2.209683E-02
   97.1679  2.114792E-02
   97.4818  2.022552E-02
   97.7967  1.887389E-02
   98.1126  1.729689E-02
   98.4296  1.580549E-02
   98.7476  1.439919E-02
   99.0666  1.307740E-02
   99.3866  1.091922E-02
   99.7077  7.568056E-03
   100.030  1.049521E-02
   100.353  1.224266E-02
   100.677  1.749390E-02
   101.002  2.334671E-02
   101.329  2.612209E-02
   101.656  2.776071E-02
   101.984  2.655189E-02
   102.314  2.472415E-02
   102.644  2.522400E-02
   102.976  2.460751E-02
   103.309  2.468559E-02
   103.642  2.341261E-02
   103.977  2.265457E-02
   104.313  2.180672E-02
   104.650  2.108175E-02
   104.988  2.034851E-02
   105.327  1.979231E-02
   105.668  1.960073E-02
   106.009  2.039522E-02
   106.351  2.082304E-02
   106.695  2.127134E-02
   107.040  2.180026E-02
   107.386  2.198330E-02
   107.732  2.230093E-02
   108.080  2.260640E-02
   108.430  2.292484E-02
   108.780  2.313868E-02
   109.131  2.321559E-02
   109.484  2.309415E-02
   109.838  2.310449E-02
   110.192  2.316194E-02
   110.548  2.333536E-02
   110.906  2.358148E-02
   111.264  2.384912E-02
   111.623  2.409925E-02
   111.984  2.429919E-02
   112.346  2.450159E-02
   112.709  2.463787E-02
   113.073  2.472529E-02
   113.438  2.481485E-02
   113.804  2.490660E-02
   114.172  2.501635E-02
   114.541  2.515737E-02
   114.911  2.535404E-02
   115.282  2.566448E-02
   115.655  2.605502E-02
   116.028  2.650846E-02
   116.403  2.697077E-02
   116.779  2.744197E-02
   117.156  2.796819E-02
   117.535  2.855998E-02
   117.915  2.909544E-02
   118.295  2.954520E-02
   118.678  2.998707E-02
   119.061  3.042353E-02
   119.446  3.072797E-02
   119.831  3.098808E-02
   120.219  3.124085E-02
   120.607  3.149379E-02
   120.997  3.174704E-02
   121.387  3.200059E-02
   121.780  3.231693E-02
   122.173  3.262913E-02
   122.568  3.286228E-02
   122.964  3.309627E-02
   123.361  3.333102E-02
   123.759  3.350209E-02
   124.159  3.366801E-02
   124.560  3.386830E-02
   124.963  3.401754E-02
   125.366  3.412855E-02
   125.771  3.423529E-02
   126.178  3.434172E-02
   126.585  3.444782E-02
   126.994  3.455359E-02
   127.405  3.471027E-02
   127.816  3.487744E-02
   128.229  3.504729E-02
   128.643  3.521835E-02
   129.059  3.539206E-02
   129.476  3.556541E-02
   129.894  3.589059E-02
   130.314  3.622632E-02
   130.735  3.656190E-02
   131.157  3.689763E-02
   131.581  3.724067E-02
   132.006  3.761602E-02
   132.432  3.799400E-02
   132.860  3.837397E-02
   133.289  3.873890E-02
   133.720  3.898391E-02
   134.152  3.912437E-02
   134.585  3.921092E-02
   135.020  3.904636E-02
   135.456  3.888857E-02
   135.894  3.873749E-02
   136.333  3.854423E-02
   136.773  3.829241E-02
   137.215  3.795676E-02
   137.658  3.764215E-02
   138.103  3.747101E-02
   138.549  3.730060E-02
   138.997  3.713089E-02
   139.446  3.696172E-02
   139.896  3.684755E-02
   140.348  3.685091E-02
   140.802  3.687109E-02
   141.257  3.688319E-02
   141.713  3.682808E-02
   142.171  3.668770E-02
   142.630  3.652068E-02
   143.091  3.635054E-02
   143.553  3.628903E-02
   144.017  3.623111E-02
   144.482  3.623232E-02
   144.949  3.623340E-02
   145.417  3.636289E-02
   145.887  3.641904E-02
   146.358  3.649919E-02
   146.831  3.656453E-02
   147.305  3.666708E-02
   147.781  3.674474E-02
   148.259  3.683241E-02
   148.738  3.690171E-02
   149.218  3.691279E-02
   149.700  3.685793E-02
   150.184  3.670062E-02
   150.669  3.659327E-02
   151.156  3.670169E-02
   151.644  3.708100E-02
   152.134  3.761538E-02
   152.625  3.802353E-02
   153.118  3.821171E-02
   153.613  3.829155E-02
   154.109  3.798047E-02
   154.607  3.765409E-02
   155.107  3.725446E-02
   155.608  3.689263E-02
   156.110  3.665936E-02
   156.615  3.652847E-02
   157.121  3.644776E-02
   157.628  3.635114E-02
   158.137  3.630382E-02
   158.648  3.645599E-02
   159.161  3.647687E-02
   159.675  3.652896E-02
   160.191  3.660261E-02
   160.708  3.671323E-02
   161.228  3.682328E-02
   161.748  3.693307E-02
   162.271  3.704260E-02
   162.795  3.723183E-02
   163.321  3.748174E-02
   163.849  3.772877E-02
   164.378  3.797460E-02
   164.909  3.819695E-02
   165.442  3.841260E-02
   165.976  3.863712E-02
   166.512  3.885566E-02
   167.050  3.883543E-02
   167.590  3.907263E-02
   168.131  3.945279E-02
   168.675  3.983426E-02
   169.219  4.019008E-02
   169.766  4.050861E-02
   170.315  4.080271E-02
   170.865  4.108170E-02
   171.417  4.136615E-02
   171.971  4.135794E-02
   172.526  4.132309E-02
   173.083  4.137804E-02
   173.643  4.155479E-02
   174.204  4.140588E-02
   174.766  4.120401E-02
   175.331  4.094460E-02
   175.897  4.068949E-02
   176.466  4.034841E-02
   177.036  4.011375E-02
   177.608  3.985978E-02
   178.181  3.961990E-02
   178.757  3.930506E-02
   179.334  3.896418E-02
   179.914  3.855243E-02
   180.495  3.847772E-02
   181.078  3.846227E-02
   181.663  3.844686E-02
   182.250  3.843146E-02
   182.839  3.841583E-02
   183.429  3.828122E-02
   184.022  3.813300E-02
   184.616  3.798520E-02
   185.213  3.783784E-02
   185.811  3.769067E-02
   186.411  3.757959E-02
   187.014  3.747186E-02
   187.618  3.736437E-02
   188.224  3.725714E-02
   188.832  3.714990E-02
   189.442  3.704557E-02
   190.054  3.694166E-02
   190.668  3.683800E-02
   191.284  3.673458E-02
   191.902  3.663118E-02
   192.522  3.652640E-02
   193.144  3.642181E-02
   193.768  3.631748E-02
   194.394  3.621342E-02
   195.022  3.610933E-02
   195.652  3.600371E-02
   196.284  3.589832E-02
   196.918  3.579320E-02
   197.554  3.568833E-02
   198.192  3.558335E-02
   198.833  3.547359E-02
   199.475  3.536412E-02
   200.119  3.525494E-02
   200.766  3.514602E-02
   201.414  3.503697E-02
   202.065  3.492536E-02
   202.718  3.481401E-02
   203.373  3.470293E-02
   204.030  3.459213E-02
   204.689  3.448178E-02
   205.350  3.437766E-02
   206.013  3.427374E-02
   206.679  3.417006E-02
   207.347  3.406659E-02
   208.016  3.396340E-02
   208.688  3.386350E-02
   209.363  3.376381E-02
   210.039  3.366433E-02
   210.718  3.356503E-02
   211.398  3.346588E-02
   212.081  3.336854E-02
   212.766  3.327140E-02
   213.454  3.317445E-02
   214.143  3.307769E-02
   214.835  3.298198E-02
   215.529  3.289316E-02
   216.225  3.280448E-02
   216.924  3.271597E-02
   217.625  3.262757E-02
   218.328  3.254025E-02
   219.033  3.245828E-02
   219.741  3.237644E-02
   220.451  3.229472E-02
   221.163  3.221311E-02
   221.877  3.212920E-02
   222.594  3.203756E-02
   223.313  3.194619E-02
   224.034  3.185506E-02
   224.758  3.176419E-02
   225.484  3.167044E-02
   226.213  3.156840E-02
   226.944  3.146665E-02
   227.677  3.136522E-02
   228.412  3.126409E-02
   229.150  3.116136E-02
   229.890  3.105473E-02
   230.633  3.094843E-02
   231.378  3.084246E-02
   232.126  3.073683E-02
   232.875  3.063002E-02
   233.628  3.052092E-02
   234.383  3.041217E-02
   235.140  3.030378E-02
   235.899  3.019573E-02
   236.661  3.008670E-02
   237.426  2.997621E-02
   238.193  2.986608E-02
   238.962  2.975631E-02
   239.734  2.964690E-02
   240.509  2.953682E-02
   241.286  2.942611E-02
   242.065  2.931578E-02
   242.847  2.920582E-02
   243.632  2.909620E-02
   244.419  2.898723E-02
   245.209  2.888021E-02
   246.001  2.877352E-02
   246.795  2.866719E-02
   247.593  2.856116E-02
   248.393  2.845334E-02
   249.195  2.834330E-02
   250.000  2.823366E-02
   250.000  2.823366E-02
   250.295  2.819371E-02
   250.590  2.815382E-02
   250.885  2.811398E-02
   251.181  2.807421E-02
   251.477  2.803447E-02
   251.773  2.799462E-02
   252.070  2.795476E-02
   252.367  2.791281E-02
   252.664  2.787067E-02
   252.962  2.782857E-02
   253.260  2.778653E-02
   253.559  2.774456E-02
   253.858  2.770263E-02
   254.157  2.766078E-02
   254.456  2.761898E-02
   254.756  2.757725E-02
   255.057  2.753557E-02
   255.357  2.749395E-02
   255.658  2.745235E-02
   255.960  2.741059E-02
   256.261  2.736853E-02
   256.563  2.732552E-02
   256.866  2.728257E-02
   257.168  2.723968E-02
   257.472  2.719685E-02
   257.775  2.715408E-02
   258.079  2.711138E-02
   258.383  2.706873E-02
   258.688  2.702615E-02
   258.992  2.698364E-02
   259.298  2.694119E-02
   259.603  2.689879E-02
   259.909  2.685633E-02
   260.216  2.681381E-02
   260.522  2.677066E-02
   260.829  2.672720E-02
   261.137  2.668381E-02
   261.445  2.664047E-02
   261.753  2.659722E-02
   262.061  2.655402E-02
   262.370  2.651088E-02
   262.679  2.646781E-02
   262.989  2.642481E-02
   263.299  2.638187E-02
   263.609  2.633899E-02
   263.920  2.629619E-02
   264.231  2.625320E-02
   264.542  2.621023E-02
   264.854  2.616649E-02
   265.166  2.612282E-02
   265.479  2.607923E-02
   265.792  2.603570E-02
   266.105  2.599222E-02
   266.419  2.594882E-02
   266.733  2.590550E-02
   267.047  2.586223E-02
   267.362  2.581904E-02
   267.677  2.577591E-02
   267.992  2.573284E-02
   268.308  2.568975E-02
   268.625  2.564653E-02
   268.941  2.560310E-02
   269.258  2.555929E-02
   269.575  2.551556E-02
   269.893  2.547189E-02
   270.211  2.542829E-02
   270.530  2.538476E-02
   270.849  2.534130E-02
   271.168  2.529791E-02
   271.487  2.525459E-02
   271.807  2.521133E-02
   272.128  2.516815E-02
   272.449  2.512503E-02
   272.770  2.508178E-02
   273.091  2.503849E-02
   273.413  2.499478E-02
   273.735  2.495100E-02
   274.058  2.490729E-02
   274.381  2.486365E-02
   274.704  2.482009E-02
   275.028  2.477659E-02
   275.352  2.473316E-02
   275.677  2.468980E-02
   276.002  2.464651E-02
   276.327  2.460330E-02
   276.653  2.456015E-02
   276.979  2.451706E-02
   277.305  2.447371E-02
   277.632  2.443038E-02
   277.959  2.438666E-02
   278.287  2.434301E-02
   278.615  2.429943E-02
   278.943  2.425593E-02
   279.272  2.421251E-02
   279.601  2.416915E-02
   279.931  2.412586E-02
   280.261  2.408264E-02
   280.591  2.403950E-02
   280.922  2.399643E-02
   281.253  2.395343E-02
   281.584  2.391035E-02
   281.916  2.386713E-02
   282.248  2.382377E-02
   282.581  2.378028E-02
   282.914  2.373686E-02
   283.248  2.369351E-02
   283.581  2.365023E-02
   283.916  2.360704E-02
   284.250  2.356391E-02
   284.585  2.352085E-02
   284.921  2.347787E-02
   285.257  2.343496E-02
   285.593  2.339212E-02
   285.929  2.334935E-02
   286.266  2.330635E-02
   286.604  2.326337E-02
   286.942  2.322016E-02
   287.280  2.317701E-02
   287.618  2.313392E-02
   287.957  2.309092E-02
   288.297  2.304798E-02
   288.637  2.300512E-02
   288.977  2.296233E-02
   289.317  2.291962E-02
   289.658  2.287698E-02
   290.000  2.283441E-02
   290.342  2.279192E-02
   290.684  2.274941E-02
   291.026  2.270666E-02
   291.369  2.266399E-02
   291.713  2.262140E-02
   292.057  2.257890E-02
   292.401  2.253645E-02
   292.745  2.249409E-02
   293.090  2.245180E-02
   293.436  2.240959E-02
   293.782  2.236744E-02
   294.128  2.232538E-02
   294.475  2.228337E-02
   294.822  2.224145E-02
   295.169  2.219960E-02
   295.517  2.215758E-02
   295.865  2.211545E-02
   296.214  2.207318E-02
   296.563  2.203088E-02
   296.913  2.198866E-02
   297.263  2.194650E-02
   297.613  2.190444E-02
   297.964  2.186244E-02
   298.315  2.182051E-02
   298.667  2.177867E-02
   299.019  2.173689E-02
   299.371  2.169519E-02
   299.724  2.165357E-02
   300.077  2.161202E-02
   300.431  2.157011E-02
   300.785  2.152822E-02
   301.140  2.148571E-02
   301.494  2.144326E-02
   301.850  2.140090E-02
   302.206  2.135862E-02
   302.562  2.131641E-02
   302.918  2.127429E-02
   303.275  2.123224E-02
   303.633  2.119026E-02
   303.991  2.114836E-02
   304.349  2.110655E-02
   304.708  2.106481E-02
   305.067  2.102301E-02
   305.426  2.098101E-02
   305.786  2.093870E-02
   306.147  2.089596E-02
   306.508  2.085331E-02
   306.869  2.081074E-02
   307.231  2.076825E-02
   307.593  2.072584E-02
   307.955  2.068351E-02
   308.318  2.064126E-02
   308.682  2.059910E-02
   309.045  2.055700E-02
   309.410  2.051500E-02
   309.774  2.047308E-02
   310.139  2.043085E-02
   310.505  2.038855E-02
   310.871  2.034594E-02
   311.237  2.030331E-02
   311.604  2.026076E-02
   311.971  2.021830E-02
   312.339  2.017592E-02
   312.707  2.013362E-02
   313.076  2.009141E-02
   313.445  2.004928E-02
   313.814  2.000723E-02
   314.184  1.996526E-02
   314.554  1.992338E-02
   314.925  1.988149E-02
   315.296  1.983888E-02
   315.668  1.979627E-02
   316.040  1.975341E-02
   316.413  1.971064E-02
   316.785  1.966795E-02
   317.159  1.962535E-02
   317.533  1.958283E-02
   317.907  1.954040E-02
   318.282  1.949805E-02
   318.657  1.945579E-02
   319.032  1.941362E-02
   319.408  1.937154E-02
   319.785  1.932953E-02
   320.162  1.928717E-02
   320.539  1.924439E-02
   320.917  1.920151E-02
   321.295  1.915859E-02
   321.674  1.911576E-02
   322.053  1.907302E-02
   322.432  1.903036E-02
   322.812  1.898779E-02
   323.193  1.894532E-02
   323.574  1.890293E-02
   323.955  1.886063E-02
   324.337  1.881842E-02
   324.719  1.877630E-02
   325.102  1.873426E-02
   325.485  1.869152E-02
   325.869  1.864875E-02
   326.253  1.860578E-02
   326.637  1.856290E-02
   327.022  1.852011E-02
   327.408  1.847742E-02
   327.794  1.843481E-02
   328.180  1.839229E-02
   328.567  1.834986E-02
   328.954  1.830753E-02
   329.342  1.826529E-02
   329.730  1.822313E-02
   330.119  1.818107E-02
   330.508  1.813887E-02
   330.897  1.809596E-02
   331.287  1.805306E-02
   331.678  1.801010E-02
   332.069  1.796724E-02
   332.460  1.792447E-02
   332.852  1.788179E-02
   333.244  1.783921E-02
   333.637  1.779672E-02
   334.030  1.775432E-02
   334.424  1.771202E-02
   334.818  1.766982E-02
   335.213  1.762770E-02
   335.608  1.758569E-02
   336.003  1.754304E-02
   336.399  1.750004E-02
   336.796  1.745703E-02
   337.193  1.741407E-02
   337.590  1.737120E-02
   337.988  1.732843E-02
   338.387  1.728575E-02
   338.785  1.724318E-02
   339.185  1.720070E-02
   339.584  1.715832E-02
   339.985  1.711605E-02
   340.385  1.707386E-02
   340.787  1.703177E-02
   341.188  1.698977E-02
   341.590  1.694655E-02
   341.993  1.690339E-02
   342.396  1.686023E-02
   342.800  1.681717E-02
   343.204  1.677422E-02
   343.608  1.673137E-02
   344.013  1.668861E-02
   344.419  1.664596E-02
   344.824  1.660340E-02
   345.231  1.656095E-02
   345.638  1.651860E-02
   346.045  1.647635E-02
   346.453  1.643420E-02
   346.861  1.639156E-02
   347.270  1.634803E-02
   347.680  1.630460E-02
   348.089  1.626126E-02
   348.500  1.621802E-02
   348.910  1.617489E-02
   349.322  1.613187E-02
   349.733  1.608895E-02
   350.145  1.604613E-02
   350.558  1.600342E-02
   350.971  1.596082E-02
   351.385  1.591832E-02
   351.799  1.587592E-02
   352.214  1.583362E-02
   352.629  1.579002E-02
   353.045  1.574603E-02
   353.461  1.570227E-02
   353.877  1.565865E-02
   354.294  1.561513E-02
   354.712  1.557173E-02
   355.130  1.552843E-02
   355.549  1.548525E-02
   355.968  1.544217E-02
   356.387  1.539921E-02
   356.807  1.535635E-02
   357.228  1.531361E-02
