 Zr Density=6.506 Thickness=0.298 microns
 Photon Energy (eV), Transmission
    50.000      0.24154E-06
    50.400      0.46858E-06
    50.800      0.87887E-06
    51.200      0.15969E-05
    51.600      0.28161E-05
    52.000      0.48280E-05
    52.400      0.80596E-05
    52.800      0.13121E-04
    53.200      0.20860E-04
    53.600      0.32431E-04
    54.000      0.49981E-04
    54.400      0.75475E-04
    54.800      0.11416E-03
    55.200      0.16931E-03
    55.600      0.24618E-03
    56.000      0.35134E-03
    56.400      0.49267E-03
    56.800      0.67946E-03
    57.200      0.92250E-03
    57.600      0.12340E-02
    58.000      0.16279E-02
    58.400      0.21191E-02
    58.800      0.27242E-02
    59.200      0.34610E-02
    59.600      0.43479E-02
    60.000      0.54043E-02
    60.400      0.66502E-02
    60.800      0.81058E-02
    61.200      0.97912E-02
    61.600      0.11726E-01
    62.000      0.13929E-01
    62.400      0.16420E-01
    62.800      0.19213E-01
    63.200      0.22327E-01
    63.600      0.25776E-01
    64.000      0.29570E-01
    64.400      0.33721E-01
    64.800      0.38238E-01
    65.200      0.43126E-01
    65.600      0.48391E-01
    66.000      0.54034E-01
    66.400      0.60054E-01
    66.800      0.66450E-01
    67.200      0.73219E-01
    67.600      0.80355E-01
    68.000      0.87850E-01
    68.400      0.95692E-01
    68.800      0.10387    
    69.200      0.11053    
    69.600      0.11670    
    70.000      0.12295    
    70.400      0.12903    
    70.800      0.13521    
    71.200      0.14151    
    71.600      0.14790    
    72.000      0.15440    
    72.400      0.16099    
    72.800      0.16766    
    73.200      0.17442    
    73.600      0.18125    
    74.000      0.18816    
    74.400      0.19512    
    74.800      0.20215    
    75.200      0.20923    
    75.600      0.21637    
    76.000      0.22354    
    76.400      0.23075    
    76.800      0.23641    
    77.200      0.24207    
    77.600      0.24758    
    78.000      0.25225    
    78.400      0.25691    
    78.800      0.26157    
    79.200      0.26623    
    79.600      0.27089    
    80.000      0.27554    
    80.400      0.28018    
    80.800      0.28482    
    81.200      0.28862    
    81.600      0.29117    
    82.000      0.29372    
    82.400      0.29623    
    82.800      0.29871    
    83.200      0.30119    
    83.600      0.30365    
    84.000      0.30611    
    84.400      0.30856    
    84.800      0.31099    
    85.200      0.31342    
    85.600      0.31584    
    86.000      0.31826    
    86.400      0.32066    
    86.800      0.32306    
    87.200      0.32544    
    87.600      0.32784    
    88.000      0.33023    
    88.400      0.33261    
    88.800      0.33498    
    89.200      0.33734    
    89.600      0.33969    
    90.000      0.34203    
    90.400      0.34437    
    90.800      0.34669    
    91.200      0.34901    
    91.600      0.35131    
    92.000      0.35361    
    92.400      0.35590    
    92.800      0.35817    
    93.200      0.36044    
    93.600      0.36270    
    94.000      0.36492    
    94.400      0.36701    
    94.800      0.36909    
    95.200      0.37116    
    95.600      0.37213    
    96.000      0.37266    
    96.400      0.37320    
    96.800      0.37373    
    97.200      0.37426    
    97.600      0.37479    
    98.000      0.37532    
    98.400      0.37584    
    98.800      0.37636    
    99.200      0.37688    
    99.600      0.37740    
    100.00      0.37792    
    100.40      0.37843    
    100.80      0.37894    
    101.20      0.37941    
    101.60      0.37974    
    102.00      0.38008    
    102.40      0.38041    
    102.80      0.38028    
    103.20      0.37966    
    103.60      0.37904    
    104.00      0.37842    
    104.40      0.37781    
    104.80      0.37720    
    105.20      0.37659    
    105.60      0.37598    
    106.00      0.37537    
    106.40      0.37477    
    106.80      0.37417    
    107.20      0.37357    
    107.60      0.37297    
    108.00      0.37238    
    108.40      0.37179    
    108.80      0.37120    
    109.20      0.37061    
    109.60      0.37003    
    110.00      0.36944    
    110.40      0.36886    
    110.80      0.36835    
    111.20      0.36785    
    111.60      0.36736    
    112.00      0.36686    
    112.40      0.36660    
    112.80      0.36642    
    113.20      0.36625    
    113.60      0.36607    
    114.00      0.36589    
    114.40      0.36572    
    114.80      0.36554    
    115.20      0.36537    
    115.60      0.36520    
    116.00      0.36502    
    116.40      0.36485    
    116.80      0.36468    
    117.20      0.36454    
    117.60      0.36479    
    118.00      0.36505    
    118.40      0.36531    
    118.80      0.36557    
    119.20      0.36589    
    119.60      0.36624    
    120.00      0.36660    
    120.40      0.36695    
    120.80      0.36729    
    121.20      0.36764    
    121.60      0.36799    
    122.00      0.36834    
    122.40      0.36868    
    122.80      0.36903    
    123.20      0.36937    
    123.60      0.36971    
    124.00      0.37005    
    124.40      0.37039    
    124.80      0.37073    
    125.20      0.37106    
    125.60      0.37140    
    126.00      0.37173    
    126.40      0.37207    
    126.80      0.37240    
    127.20      0.37273    
    127.60      0.37306    
    128.00      0.37339    
    128.40      0.37372    
    128.80      0.37405    
    129.20      0.37438    
    129.60      0.37470    
    130.00      0.37503    
    130.40      0.37535    
    130.80      0.37567    
    131.20      0.37599    
    131.60      0.37631    
    132.00      0.37663    
    132.40      0.37693    
    132.80      0.37724    
    133.20      0.37754    
    133.60      0.37784    
    134.00      0.37812    
    134.40      0.37839    
    134.80      0.37864    
    135.20      0.37890    
    135.60      0.37916    
    136.00      0.37942    
    136.40      0.37968    
    136.80      0.37993    
    137.20      0.38019    
    137.60      0.38044    
    138.00      0.38070    
    138.40      0.38095    
    138.80      0.38120    
    139.20      0.38145    
    139.60      0.38170    
    140.00      0.38195    
    140.40      0.38220    
    140.80      0.38245    
    141.20      0.38270    
    141.60      0.38295    
    142.00      0.38319    
    142.40      0.38344    
    142.80      0.38368    
    143.20      0.38393    
    143.60      0.38417    
    144.00      0.38442    
    144.40      0.38466    
    144.80      0.38490    
    145.20      0.38514    
    145.60      0.38538    
    146.00      0.38562    
    146.40      0.38586    
    146.80      0.38610    
    147.20      0.38634    
    147.60      0.38657    
    148.00      0.38681    
    148.40      0.38705    
    148.80      0.38728    
    149.20      0.38752    
    149.60      0.38775    
    150.00      0.38798    
    150.40      0.38822    
    150.80      0.38845    
    151.20      0.38868    
    151.60      0.38891    
    152.00      0.38914    
    152.40      0.38937    
    152.80      0.38960    
    153.20      0.38991    
    153.60      0.39021    
    154.00      0.39052    
    154.40      0.39083    
    154.80      0.39113    
    155.20      0.39146    
    155.60      0.39182    
    156.00      0.39219    
    156.40      0.39255    
    156.80      0.39292    
    157.20      0.39328    
    157.60      0.39364    
    158.00      0.39401    
    158.40      0.39437    
    158.80      0.39473    
    159.20      0.39508    
    159.60      0.39544    
    160.00      0.39580    
    160.40      0.39615    
    160.80      0.39651    
    161.20      0.39686    
    161.60      0.39722    
    162.00      0.39757    
    162.40      0.39792    
    162.80      0.39827    
    163.20      0.39862    
    163.60      0.39897    
    164.00      0.39932    
    164.40      0.39966    
    164.80      0.40001    
    165.20      0.40036    
    165.60      0.40070    
    166.00      0.40104    
    166.40      0.40139    
    166.80      0.40173    
    167.20      0.40207    
    167.60      0.40241    
    168.00      0.40275    
    168.40      0.40309    
    168.80      0.40343    
    169.20      0.40376    
    169.60      0.40410    
    170.00      0.40443    
    170.40      0.40477    
    170.80      0.40510    
    171.20      0.40543    
    171.60      0.40577    
    172.00      0.40610    
    172.40      0.40643    
    172.80      0.40676    
    173.20      0.40709    
    173.60      0.40742    
    174.00      0.40774    
    174.40      0.40807    
    174.80      0.40840    
    175.20      0.40872    
    175.60      0.40904    
    176.00      0.40937    
    176.40      0.40663    
    176.80      0.39554    
    177.20      0.38444    
    177.60      0.37335    
    178.00      0.36229    
    178.40      0.35125    
    178.80      0.34092    
    179.20      0.34094    
    179.60      0.34097    
    180.00      0.34100    
    180.40      0.34103    
    180.80      0.34105    
    181.20      0.34108    
    181.60      0.34111    
    182.00      0.34114    
    182.40      0.34116    
    182.80      0.34119    
    183.20      0.34122    
    183.60      0.34125    
    184.00      0.34127    
    184.40      0.33751    
    184.80      0.33197    
    185.20      0.32646    
    185.60      0.32097    
    186.00      0.31550    
    186.40      0.31006    
    186.80      0.30464    
    187.20      0.29854    
    187.60      0.29235    
    188.00      0.28620    
    188.40      0.28008    
    188.80      0.27401    
    189.20      0.26798    
    189.60      0.26199    
    190.00      0.25669    
    190.40      0.25149    
    190.80      0.24634    
    191.20      0.24123    
    191.60      0.23616    
    192.00      0.23114    
    192.40      0.22616    
    192.80      0.22288    
    193.20      0.21991    
    193.60      0.21695    
    194.00      0.21401    
    194.40      0.21109    
    194.80      0.20820    
    195.20      0.20532    
    195.60      0.20246    
    196.00      0.19963    
    196.40      0.19681    
    196.80      0.19402    
    197.20      0.19125    
    197.60      0.18849    
    198.00      0.18576    
    198.40      0.18077    
    198.80      0.17312    
    199.20      0.16563    
    199.60      0.15830    
    200.00      0.15113    
    200.40      0.14414    
    200.80      0.13732    
    201.20      0.13063    
    201.60      0.12363    
    202.00      0.11684    
    202.40      0.11028    
    202.80      0.10393    
    203.20      0.97799E-01
    203.60      0.91895E-01
    204.00      0.86214E-01
    204.40      0.80759E-01
    204.80      0.75528E-01
    205.20      0.70520E-01
    205.60      0.65733E-01
    206.00      0.61166E-01
    206.40      0.56816E-01
    206.80      0.52680E-01
    207.20      0.48803E-01
    207.60      0.46358E-01
    208.00      0.44002E-01
    208.40      0.41733E-01
    208.80      0.39550E-01
    209.20      0.37451E-01
    209.60      0.35435E-01
    210.00      0.33499E-01
    210.40      0.31873E-01
    210.80      0.30742E-01
    211.20      0.29642E-01
    211.60      0.28572E-01
    212.00      0.27533E-01
    212.40      0.26523E-01
    212.80      0.25541E-01
    213.20      0.24588E-01
    213.60      0.23967E-01
    214.00      0.23625E-01
    214.40      0.23287E-01
    214.80      0.22952E-01
    215.20      0.22623E-01
    215.60      0.22297E-01
    216.00      0.21975E-01
    216.40      0.21658E-01
    216.80      0.21344E-01
    217.20      0.21035E-01
    217.60      0.20729E-01
    218.00      0.20427E-01
    218.40      0.20129E-01
    218.80      0.19835E-01
    219.20      0.19544E-01
    219.60      0.19257E-01
    220.00      0.18974E-01
    220.40      0.18695E-01
    220.80      0.18419E-01
    221.20      0.18146E-01
    221.60      0.17877E-01
    222.00      0.17612E-01
    222.40      0.17350E-01
    222.80      0.17091E-01
    223.20      0.16809E-01
    223.60      0.16492E-01
    224.00      0.16179E-01
    224.40      0.15872E-01
    224.80      0.15570E-01
    225.20      0.15272E-01
    225.60      0.14979E-01
    226.00      0.14692E-01
    226.40      0.14404E-01
    226.80      0.14085E-01
    227.20      0.13771E-01
    227.60      0.13464E-01
    228.00      0.13162E-01
    228.40      0.12867E-01
    228.80      0.12576E-01
    229.20      0.12292E-01
    229.60      0.12013E-01
    230.00      0.11739E-01
    230.40      0.11471E-01
    230.80      0.11207E-01
    231.20      0.10950E-01
    231.60      0.10697E-01
    232.00      0.10449E-01
    232.40      0.10206E-01
    232.80      0.99679E-02
    233.20      0.97278E-02
    233.60      0.94614E-02
    234.00      0.92012E-02
    234.40      0.89470E-02
    234.80      0.86989E-02
    235.20      0.84566E-02
    235.60      0.82202E-02
    236.00      0.79893E-02
    236.40      0.77640E-02
    236.80      0.75384E-02
    237.20      0.73134E-02
    237.60      0.70940E-02
    238.00      0.68803E-02
    238.40      0.66720E-02
    238.80      0.64692E-02
    239.20      0.62717E-02
    239.60      0.60794E-02
    240.00      0.58922E-02
    240.40      0.57832E-02
    240.80      0.57035E-02
    241.20      0.56248E-02
    241.60      0.55472E-02
    242.00      0.54705E-02
    242.40      0.53949E-02
    242.80      0.53202E-02
    243.20      0.52464E-02
    243.60      0.51736E-02
    244.00      0.51496E-02
    244.40      0.51371E-02
    244.80      0.51246E-02
    245.20      0.51122E-02
    245.60      0.50999E-02
    246.00      0.50875E-02
    246.40      0.50752E-02
    246.80      0.50630E-02
    247.20      0.50508E-02
    247.60      0.50386E-02
    248.00      0.50265E-02
    248.40      0.50144E-02
    248.80      0.50024E-02
    249.20      0.49904E-02
    249.60      0.49784E-02
    250.00      0.49665E-02
    250.40      0.49546E-02
    250.80      0.49428E-02
    251.20      0.49243E-02
    251.60      0.49009E-02
    252.00      0.48776E-02
    252.40      0.48545E-02
    252.80      0.48315E-02
    253.20      0.48086E-02
    253.60      0.47858E-02
    254.00      0.47631E-02
    254.40      0.47406E-02
    254.80      0.47178E-02
    255.20      0.46940E-02
    255.60      0.46703E-02
    256.00      0.46468E-02
    256.40      0.46233E-02
    256.80      0.46000E-02
    257.20      0.45769E-02
    257.60      0.45539E-02
    258.00      0.45309E-02
    258.40      0.45082E-02
    258.80      0.44855E-02
    259.20      0.44630E-02
    259.60      0.44406E-02
    260.00      0.44183E-02
    260.40      0.43962E-02
    260.80      0.43742E-02
    261.20      0.43523E-02
    261.60      0.43305E-02
    262.00      0.43089E-02
    262.40      0.42876E-02
    262.80      0.42673E-02
    263.20      0.42472E-02
    263.60      0.42272E-02
    264.00      0.42072E-02
    264.40      0.41874E-02
    264.80      0.41677E-02
    265.20      0.41481E-02
    265.60      0.41286E-02
    266.00      0.41092E-02
    266.40      0.41002E-02
    266.80      0.41043E-02
    267.20      0.41083E-02
    267.60      0.41124E-02
    268.00      0.41164E-02
    268.40      0.41205E-02
    268.80      0.41245E-02
    269.20      0.41286E-02
    269.60      0.41326E-02
    270.00      0.41367E-02
    270.40      0.41407E-02
    270.80      0.41448E-02
    271.20      0.41488E-02
    271.60      0.41529E-02
    272.00      0.41569E-02
    272.40      0.41610E-02
    272.80      0.41650E-02
    273.20      0.41690E-02
    273.60      0.41731E-02
    274.00      0.41771E-02
    274.40      0.41811E-02
    274.80      0.41852E-02
    275.20      0.41892E-02
    275.60      0.41932E-02
    276.00      0.41972E-02
    276.40      0.42012E-02
    276.80      0.42052E-02
    277.20      0.42092E-02
    277.60      0.42132E-02
    278.00      0.42172E-02
    278.40      0.42261E-02
    278.80      0.42447E-02
    279.20      0.42634E-02
    279.60      0.42821E-02
    280.00      0.43009E-02
    280.40      0.43197E-02
    280.80      0.43385E-02
    281.20      0.43574E-02
    281.60      0.43763E-02
    282.00      0.43953E-02
    282.40      0.44143E-02
    282.80      0.44360E-02
    283.20      0.44578E-02
    283.60      0.44796E-02
    284.00      0.45014E-02
    284.40      0.45234E-02
    284.80      0.45453E-02
    285.20      0.45674E-02
    285.60      0.45895E-02
    286.00      0.46116E-02
    286.40      0.46338E-02
    286.80      0.46561E-02
    287.20      0.46784E-02
    287.60      0.47008E-02
    288.00      0.47232E-02
    288.40      0.47457E-02
    288.80      0.47682E-02
    289.20      0.47908E-02
    289.60      0.48135E-02
    290.00      0.48362E-02
    290.40      0.48590E-02
    290.80      0.48818E-02
    291.20      0.49034E-02
    291.60      0.49248E-02
    292.00      0.49463E-02
    292.40      0.49679E-02
    292.80      0.49895E-02
    293.20      0.50111E-02
    293.60      0.50328E-02
    294.00      0.50545E-02
    294.40      0.50762E-02
    294.80      0.50981E-02
    295.20      0.51179E-02
    295.60      0.51078E-02
    296.00      0.50978E-02
    296.40      0.50877E-02
    296.80      0.50777E-02
    297.20      0.50677E-02
    297.60      0.50578E-02
    298.00      0.50479E-02
    298.40      0.50380E-02
    298.80      0.50281E-02
    299.20      0.50183E-02
    299.60      0.50085E-02
    300.00      0.49987E-02
    300.40      0.49889E-02
    300.80      0.49792E-02
    301.20      0.49695E-02
    301.60      0.49598E-02
    302.00      0.49501E-02
    302.40      0.49405E-02
    302.80      0.49309E-02
    303.20      0.49213E-02
    303.60      0.49118E-02
    304.00      0.49023E-02
    304.40      0.48928E-02
    304.80      0.48834E-02
    305.20      0.48739E-02
    305.60      0.48646E-02
    306.00      0.48552E-02
    306.40      0.48458E-02
    306.80      0.48366E-02
    307.20      0.48273E-02
    307.60      0.48180E-02
    308.00      0.48088E-02
    308.40      0.47996E-02
    308.80      0.48042E-02
    309.20      0.48153E-02
    309.60      0.48265E-02
    310.00      0.48377E-02
    310.40      0.48488E-02
    310.80      0.48600E-02
    311.20      0.48712E-02
    311.60      0.48824E-02
    312.00      0.48936E-02
    312.40      0.49048E-02
    312.80      0.49161E-02
    313.20      0.49283E-02
    313.60      0.49440E-02
    314.00      0.49598E-02
    314.40      0.49757E-02
    314.80      0.49915E-02
    315.20      0.50074E-02
    315.60      0.50232E-02
    316.00      0.50391E-02
    316.40      0.50550E-02
    316.80      0.50710E-02
    317.20      0.50869E-02
    317.60      0.51029E-02
    318.00      0.51189E-02
    318.40      0.51350E-02
    318.80      0.51510E-02
    319.20      0.51671E-02
    319.60      0.51832E-02
    320.00      0.51993E-02
    320.40      0.52154E-02
    320.80      0.52316E-02
    321.20      0.52477E-02
    321.60      0.52639E-02
    322.00      0.52801E-02
    322.40      0.52964E-02
    322.80      0.52740E-02
    323.20      0.52411E-02
    323.60      0.52085E-02
    324.00      0.51761E-02
    324.40      0.51439E-02
    324.80      0.51119E-02
    325.20      0.50801E-02
    325.60      0.50486E-02
    326.00      0.50172E-02
    326.40      0.49860E-02
    326.80      0.49550E-02
    327.20      0.49241E-02
    327.60      0.48814E-02
    328.00      0.48361E-02
    328.40      0.47912E-02
    328.80      0.47467E-02
    329.20      0.47026E-02
    329.60      0.46589E-02
    330.00      0.46155E-02
    330.40      0.45726E-02
    330.80      0.45300E-02
    331.20      0.44878E-02
    331.60      0.44460E-02
    332.00      0.44045E-02
    332.40      0.43634E-02
    332.80      0.43227E-02
    333.20      0.42823E-02
    333.60      0.42423E-02
    334.00      0.42027E-02
